Temperature , Average Energy , Average Abs Magnetization , Specific Heat , Susceptibility
2.1,-32195.5,14857.8,191029,8.39913e+06
2.12,-31703.7,13262.1,159402,1.04764e+07
2.14,-31394.2,14410.7,140630,6.45245e+06
2.16,-30911.8,14039.7,122713,4.00603e+06
2.18,-30253,11983.3,139069,7.80779e+06
2.2,-29523.6,7882.66,118650,1.38753e+07
2.22,-29261.3,11651,144264,1.09843e+07
2.24,-28271.1,5852.41,107054,1.20515e+07
2.26,-28101.9,10648.9,120397,8.42014e+06
2.28,-26830.1,2822.37,49328.2,1.45775e+06
2.3,-26291.3,3830.48,53093.4,2.17828e+06
2.32,-25606.7,2549.4,42695.6,1.24788e+06
2.34,-24958.2,1349.2,34123.1,495628
2.36,-24468,1457.33,32059.7,467522
2.38,-24025.7,1385.12,33076.1,473028
